Measurements with Tektronix TDS5034 Scope

50Ohm, AC-Coupled


     Settings            Measurement
Amplitude Frequency   Amplitude  Freq
(scale)    (Hz)       (mV RMS)   (Hz)
0.625      1.0E6        420      1.E6
0.625      2.0E6        424 
0.625      3.0E6        424 
0.625      4.0E6        422 
0.625      5.0E6        419 
0.625      6.0E6        416 
0.625      7.0E6        414 
0.625      8.0E6        418
0.625      9.0E6        418
0.625     10.0E6        412
0.625     12.0E6        408
0.625     15.0E6        401
0.625     18.0E6        396
0.625     20.0E6        391
0.625     22.0E6        387
0.625     25.0E6        382
0.625     28.0E6        383
0.625     30.0E6        378
0.625     32.0E6        378
0.625     35.0E6        376
0.625     40.0E6        378
0.625     42.0E6        380
0.625     45.0E6        382
0.625     48.0E6        387
0.625     50.0E6        389
0.625     52.0E6        391
0.625     55.0E6        396
0.625     55.0E6        396
0.625     58.0E6        402
0.625     60.0E6        403
0.625     62.0E6        406
0.625     65.0E6        408
0.625     70.0E6        407
0.625     72.0E6        407
0.625     75.0E6        402
0.625     78.0E6        397
0.625     80.0E6        391
0.625     82.0E6        387
0.625     85.0E6        379
0.625     88.0E6        372
0.625     90.0E6        367
0.625     95.0E6        357
0.625    100.0E6        352
0.625    105.0E6        352
0.625    110.0E6        355
0.625    120.0E6        370 (measurements seem to get less reliable)
0.625    130.0E6        370 (measurements seem to get less reliable)

1.000    100.0E6        562
1.000     90.0E6        610
1.000     80.0E6        623
1.000     70.0E6        650
1.000     60.0E6        643
1.000     50.0E6        618
1.000     40.0E6        599
1.000     30.0E6        599
1.000     20.0E6        617
1.000     15.0E6        631
1.000     10.0E6        645
1.000      5.0E6        655
1.000      1.0E6        658

0.200      1.0E6        134
0.200      5.0E6        134
0.200     10.0E6        131
0.200     15.0E6        127
0.200     20.0E6        125
0.200     30.0E6        120
0.200     40.0E6        120
0.200     50.0E6        124
0.200     60.0E6        129
0.200     70.0E6        130
0.200     80.0E6        125
0.200     90.0E6        118
0.200    100.0E6        113
0.200    110.0E6        114
0.200    120.0E6        114 (measurements get unreliable)
